   k       A(k)       B(k)       Pref        DelP
 ----   ----------  --------  ----------  ---------
*+    1    0.010000    0.0000      0.0100
*     2    0.020004    0.0000      0.0200     0.0100
      3    0.031022    0.0000      0.0310     0.0110
      4    0.046661    0.0000      0.0467     0.0156
      5    0.068280    0.0000      0.0683     0.0216
      6    0.097470    0.0000      0.0975     0.0292
      7    0.136054    0.0000      0.1361     0.0386
      8    0.186089    0.0000      0.1861     0.0500
      9    0.249857    0.0000      0.2499     0.0638
     10    0.329857    0.0000      0.3299     0.0800
     11    0.428792    0.0000      0.4288     0.0989
     12    0.549555    0.0000      0.5496     0.1208
     13    0.695206    0.0000      0.6952     0.1457
     14    0.868959    0.0000      0.8690     0.1738
     15    1.074157    0.0000      1.0742     0.2052
     16    1.314255    0.0000      1.3143     0.2401
     17    1.592794    0.0000      1.5928     0.2785
     18    1.913386    0.0000      1.9134     0.3206
     19    2.279689    0.0000      2.2797     0.3663
     20    2.695396    0.0000      2.6954     0.4157
     21    3.164207    0.0000      3.1642     0.4688
     22    3.689824    0.0000      3.6898     0.5256
     23    4.275925    0.0000      4.2759     0.5861
     24    4.926160    0.0000      4.9262     0.6502
     25    5.644134    0.0000      5.6441     0.7180
     26    6.433399    0.0000      6.4334     0.7893
     27    7.297441    0.0000      7.2974     0.8640
     28    8.239678    0.0000      8.2397     0.9422
     29    9.263449    0.0000      9.2634     1.0238
     30   10.372011    0.0000     10.3720     1.1086
     31   11.568536    0.0000     11.5685     1.1965
     32   12.856103    0.0000     12.8561     1.2876
     33   14.237701    0.0000     14.2377     1.3816
     34   15.716229    0.0000     15.7162     1.4785
     35   17.294489    0.0000     17.2945     1.5783
     36   18.975192    0.0000     18.9752     1.6807
     37   20.760959    0.0000     20.7610     1.7858
     38   22.654316    0.0000     22.6543     1.8934
     39   24.657705    0.0000     24.6577     2.0034
     40   26.773481    0.0000     26.7735     2.1158
     41   29.003913    0.0000     29.0039     2.2304
     42   31.351193    0.0000     31.3512     2.3473
     43   33.817436    0.0000     33.8174     2.4662
     44   36.404682    0.0000     36.4047     2.5872
     45   39.114904    0.0000     39.1149     2.7102
     46   41.949306    0.0000     41.9493     2.8344
     47   44.908173    0.0000     44.9082     2.9589
     48   47.991493    0.0000     47.9915     3.0833
     49   51.198949    0.0000     51.1989     3.2075
     50   54.529906    0.0000     54.5299     3.3310
     51   57.983446    0.0000     57.9834     3.4535
     52   61.560741    0.0000     61.5607     3.5773
     53   65.269466    0.0000     65.2695     3.7087
     54   69.118705    0.0000     69.1187     3.8492
     55   73.118690    0.0000     73.1187     4.0000
     56   77.274119    0.0000     77.2811     4.1624
     57   81.593538    0.0000     81.6175     4.3364
     58   86.085252    0.0001     86.1443     4.5267
     59   90.764002    0.0001     90.8760     4.7317
     60   95.626824    0.0002     95.8258     4.9498
     61  100.659783    0.0003    100.9998     5.1740
     62  105.846316    0.0006    106.4083     5.4085
     63  111.166619    0.0009    112.0566     5.6483
     64  116.600671    0.0014    117.9537     5.8971
     65  122.115476    0.0020    124.1075     6.1538
     66  127.668728    0.0029    130.5257     6.4183
     67  133.246686    0.0040    137.2177     6.6920
     68  138.813307    0.0054    144.1913     6.9736
     69  144.321393    0.0071    151.4544     7.2631
     70  149.756149    0.0093    159.0171     7.5628
     71  155.082565    0.0118    166.8886     7.8714
     72  160.261149    0.0148    175.0771     8.1886
     73  165.273219    0.0183    183.5912     8.5141
     74  170.087887    0.0224    192.4429     8.8517
     75  174.676129    0.0270    201.6401     9.1972
     76  179.016207    0.0322    211.1922     9.5521
     77  183.084332    0.0380    221.1103     9.9181
     78  186.857183    0.0445    231.4052    10.2949
     79  190.312886    0.0518    242.0859    10.6807
     80  193.435113    0.0597    253.1631    11.0772
     81  196.200425    0.0684    264.6484    11.4853
     82  198.593902    0.0780    276.5519    11.9035
     83  200.599312    0.0883    288.8853    12.3334
     84  202.196636    0.0995    301.6586    12.7733
     85  203.378628    0.1115    314.8836    13.2250
     86  204.123081    0.1244    328.5711    13.6875
     87  204.420777    0.1383    342.7338    14.1627
     88  204.257183    0.1531    357.3822    14.6484
     89  203.618160    0.1689    372.5282    15.1460
     90  202.495113    0.1857    388.1841    15.6560
     91  200.870855    0.2035    404.3619    16.1777
     92  198.740249    0.2223    421.0732    16.7114
     93  196.085718    0.2422    438.3297    17.2565
     94  192.902261    0.2632    456.1443    17.8145
     95  189.174605    0.2854    474.5286    18.3843
     96  184.897066    0.3086    493.4951    18.9665
     97  180.069254    0.3329    513.0083    19.5132
     98  174.718395    0.3583    532.9724    19.9641
     99  168.886871    0.3844    553.2499    20.2775
    100  162.620465    0.4111    573.7455    20.4956
    101  155.966950    0.4384    594.3579    20.6125
    102  148.984528    0.4660    614.9875    20.6296
    103  141.733239    0.4938    635.5333    20.5457
    104  134.277692    0.5216    655.8967    20.3635
    105  126.682575    0.5493    675.9836    20.0869
    106  119.013396    0.5767    695.7054    19.7218
    107  111.333044    0.6036    714.9811    19.2757
    108  103.701755    0.6300    733.7378    18.7567
    109   96.175154    0.6557    751.9112    18.1734
    110   88.804529    0.6806    769.4476    17.5364
    111   81.633748    0.7047    786.3027    16.8552
    112   74.703436    0.7277    802.4424    16.1397
    113   68.044217    0.7498    817.8412    15.3988
    114   61.685311    0.7708    832.4833    14.6421
    115   55.643827    0.7907    846.3608    13.8775
    116   49.937968    0.8095    859.4739    13.1131
    117   44.573749    0.8273    871.8298    12.3558
    118   39.559608    0.8439    883.4406    11.6108
    119   34.892343    0.8594    894.3243    10.8837
    120   30.572656    0.8739    904.5017    10.1774
    121   26.591406    0.8874    913.9994     9.4977
    122   22.942421    0.8999    922.8424     8.8430
    123   19.615000    0.9114    931.0630     8.2206
    124   16.594765    0.9221    938.6908     7.6278
    125   13.875468    0.9319    945.7565     7.0657
    126   11.432500    0.9409    952.2925     6.5360
    127    9.265078    0.9491    958.3291     6.0366
    128    7.349922    0.9566    963.8999     5.5708
    129    5.680625    0.9634    969.0326     5.1327
    130    4.244141    0.9695    973.7571     4.7245
    131    3.024766    0.9751    978.1028     4.3456
    132    2.024844    0.9801    982.0969     3.9941
    133    1.221016    0.9845    985.7630     3.6662
    134    0.627812    0.9885    989.1278     3.3648
    135    0.228359    0.9920    992.2124     3.0846
    136    0.037578    0.9950    995.0406     2.8282
    137    0.000000    0.9976    997.6300     2.5894
    138    0.000000    1.0000   1000.0000     2.3700
